* Sea-Bird SBE19plus Data File:
* FileName = C:\WQ\field\CTD_files\Aqr-6199\WQP111.hex
* Software Version 1.59
* Temperature SN =  7360
* Conductivity SN =  7360
* System UpLoad Time = Jul 15 2015 21:54:45
* ds
* SBE 19plus V 2.5.2  SERIAL NO. 7360    15 Jul 2015 11:54:14
* vbatt = 13.3, vlith =  8.1, ioper =  61.0 ma, ipump =  70.1 ma,
* iext01 =   5.2 ma, iext2345 =  57.8 ma
* status = not logging
* number of scans to average = 1
* samples = 3200, free = 3130044, casts = 2
* mode = profile, minimum cond freq = 3045, pump delay = 40 sec
* autorun = no, ignore magnetic switch = no
* battery type = alkaline, battery cutoff =  7.5 volts
* pressure sensor = strain gauge, range = 870.0
* SBE 38 = no, WETLABS = no, OPTODE = no, SBE63 = no, Gas Tension Device = no
* Ext Volt 0 = yes, Ext Volt 1 = yes
* Ext Volt 2 = yes, Ext Volt 3 = yes
* Ext Volt 4 = yes, Ext Volt 5 = no
* echo characters = yes
* output format = raw HEX


* S>
*
* SBE 19plus V 2.5.2  SERIAL NO. 7360    15 Jul 2015 11:54:25
* temperature:  08-Aug-13
*     TA0 = 1.266975e-03
*     TA1 = 2.713870e-04
*     TA2 = -8.894648e-07
*     TA3 = 1.712994e-07
*     TOFFSET = 0.000000e+00
* conductivity:  08-Aug-13
*     G = -9.789944e-01
*     H = 1.518054e-01
*     I = -3.760482e-04
*     J = 5.209690e-05
*     CPCOR = -9.570000e-08
*     CTCOR = 3.250000e-06
*     CSLOPE = 1.000000e+00
* pressure S/N = 3885706, range = 870 psia:  29-Jul-13
*     PA0 = 8.691792e-01
*     PA1 = 2.649506e-03
*     PA2 = 1.659475e-11
*     PTCA0 = 5.252977e+05
*     PTCA1 = 2.484964e+01
*     PTCA2 = -4.421651e-01
*     PTCB0 = 2.504400e+01
*     PTCB1 = 6.000001e-04
*     PTCB2 = 0.000000e+00
*     PTEMPA0 = -6.389295e+01
*     PTEMPA1 = 5.320092e+01
*     PTEMPA2 = -3.290197e-01
*     POFFSET = 0.000000e+00
* volt 0: offset = -4.657263e-02, slope = 1.250137e+00
* volt 1: offset = -4.690842e-02, slope = 1.251306e+00
* volt 2: offset = -4.660632e-02, slope = 1.250843e+00
* volt 3: offset = -4.663158e-02, slope = 1.250540e+00
* volt 4: offset = -4.637579e-02, slope = 1.250323e+00
* volt 5: offset = -4.628947e-02, slope = 1.251588e+00
*     EXTFREQSF = 9.999977e-01

* dh
* cast   1 15 Jul 2015 03:43:07 samples 1 to 1741, avg = 1, stop = mag switch


* S>
# nquan = 10
# nvalues = 1452                        
# units = specified
# name 0 = prdM: Pressure, Strain Gauge [db]
# name 1 = tv290C: Temperature [ITS-90, deg C]
# name 2 = c0S/m: Conductivity [S/m]
# name 3 = sbeox0V: Oxygen raw, SBE 43 [V]
# name 4 = flECO-AFL: Fluorescence, WET Labs ECO-AFL/FL [mg/m^3]
# name 5 = CStarTr0: Beam Transmission, WET Labs C-Star [%]
# name 6 = scan: Scan Count
# name 7 = timeS: Time, Elapsed [seconds]
# name 8 = par/sat/log: PAR/Logarithmic, Satlantic [umol photons/m^2/sec]
# name 9 = flag:  0.000e+00
# span 0 =      0.060,     16.051       
# span 1 =    21.4872,    22.3093       
# span 2 =   0.100941,   5.141568       
# span 3 =     2.0160,     2.8450       
# span 4 =    -0.1754,    29.3114       
# span 5 =     7.7269,    84.1358       
# span 6 =          1,       1452       
# span 7 =      0.000,    362.750       
# span 8 = 9.4018e+01, 3.3028e+03       
# span 9 = 0.0000e+00, 0.0000e+00       
# interval = seconds: 0.25
# start_time = Jul 15 2015 03:43:07 [Instrument's time stamp, header]
# bad_flag = -9.990e-29
# <Sensors count="8" >
#   <sensor Channel="1" >
#     <!-- Count, Temperature -->
#     <TemperatureSensor SensorID="58" >
#       <SerialNumber>7360</SerialNumber>
#       <CalibrationDate>08-Aug-13</CalibrationDate>
#       <A0>1.26697500e-003</A0>
#       <A1>2.71387000e-004</A1>
#       <A2>-8.89464800e-007</A2>
#       <A3>1.71299400e-007</A3>
#       <Slope>1.00000000</Slope>
#       <Offset>0.0000</Offset>
#     </TemperatureSensor>
#   </sensor>
#   <sensor Channel="2" >
#     <!-- Frequency 0, Conductivity -->
#     <ConductivitySensor SensorID="3" >
#       <SerialNumber>7360</SerialNumber>
#       <CalibrationDate>08-Aug-13</CalibrationDate>
#       <UseG_J>1</UseG_J>
#       <!-- Cell const and series R are applicable only for wide range sensors. -->
#       <SeriesR>0.0000</SeriesR>
#       <CellConst>2000.0000</CellConst>
#       <ConductivityType>0</ConductivityType>
#       <Coefficients equation="0" >
#         <A>0.00000000e+000</A>
#         <B>0.00000000e+000</B>
#         <C>0.00000000e+000</C>
#         <D>0.00000000e+000</D>
#         <M>0.0</M>
#         <CPcor>-9.57000000e-008</CPcor>
#       </Coefficients>
#       <Coefficients equation="1" >
#         <G>-9.78994400e-001</G>
#         <H>1.51805400e-001</H>
#         <I>-3.76048200e-004</I>
#         <J>5.20969000e-005</J>
#         <CPcor>-9.57000000e-008</CPcor>
#         <CTcor>3.2500e-006</CTcor>
#         <!-- WBOTC not applicable unless ConductivityType = 1. -->
#         <WBOTC>0.00000000e+000</WBOTC>
#       </Coefficients>
#       <Slope>1.00000000</Slope>
#       <Offset>0.00000</Offset>
#     </ConductivitySensor>
#   </sensor>
#   <sensor Channel="3" >
#     <!-- Count, Pressure, Strain Gauge -->
#     <PressureSensor SensorID="46" >
#       <SerialNumber>7360</SerialNumber>
#       <CalibrationDate>29-Jul-13</CalibrationDate>
#       <PA0>8.69179217e-001</PA0>
#       <PA1>2.64950632e-003</PA1>
#       <PA2>1.65947483e-011</PA2>
#       <PTEMPA0>-6.38929483e+001</PTEMPA0>
#       <PTEMPA1>5.32009236e+001</PTEMPA1>
#       <PTEMPA2>-3.29019670e-001</PTEMPA2>
#       <PTCA0>5.25297715e+005</PTCA0>
#       <PTCA1>2.48496381e+001</PTCA1>
#       <PTCA2>-4.42165143e-001</PTCA2>
#       <PTCB0>2.50440000e+001</PTCB0>
#       <PTCB1>6.00000000e-004</PTCB1>
#       <PTCB2>0.00000000e+000</PTCB2>
#       <Offset>0.000000</Offset>
#     </PressureSensor>
#   </sensor>
#   <sensor Channel="4" >
#     <!-- A/D voltage 0, Oxygen, SBE 43 -->
#     <OxygenSensor SensorID="38" >
#       <SerialNumber>2633</SerialNumber>
#       <CalibrationDate>09-Aug-13</CalibrationDate>
#       <Use2007Equation>1</Use2007Equation>
#       <CalibrationCoefficients equation="0" >
#         <!-- Coefficients for Owens-Millard equation. -->
#         <Boc>0.0000</Boc>
#         <Soc>0.0000e+000</Soc>
#         <offset>0.0000</offset>
#         <Pcor>0.00e+000</Pcor>
#         <Tcor>0.0000</Tcor>
#         <Tau>0.0</Tau>
#       </CalibrationCoefficients>
#       <CalibrationCoefficients equation="1" >
#         <!-- Coefficients for Sea-Bird equation - SBE calibration in 2007 and later. -->
#         <Soc>4.2180e-001</Soc>
#         <offset>-0.5022</offset>
#         <A>-2.8656e-003</A>
#         <B> 2.0966e-004</B>
#         <C>-3.5306e-006</C>
#         <D0> 2.5826e+000</D0>
#         <D1> 1.92634e-004</D1>
#         <D2>-4.64803e-002</D2>
#         <E> 3.6000e-002</E>
#         <Tau20> 1.8100</Tau20>
#         <H1>-3.3000e-002</H1>
#         <H2> 5.0000e+003</H2>
#         <H3> 1.4500e+003</H3>
#       </CalibrationCoefficients>
#     </OxygenSensor>
#   </sensor>
#   <sensor Channel="5" >
#     <!-- A/D voltage 1, Free -->
#   </sensor>
#   <sensor Channel="6" >
#     <!-- A/D voltage 2, Fluorometer, WET Labs ECO-AFL/FL -->
#     <FluoroWetlabECO_AFL_FL_Sensor SensorID="20" >
#       <SerialNumber>FLRT-3240</SerialNumber>
#       <CalibrationDate>23-Sep-14</CalibrationDate>
#       <ScaleFactor>6.00000000e+000</ScaleFactor>
#       <!-- Dark output -->
#       <Vblank>0.0390</Vblank>
#     </FluoroWetlabECO_AFL_FL_Sensor>
#   </sensor>
#   <sensor Channel="7" >
#     <!-- A/D voltage 3, Transmissometer, WET Labs C-Star -->
#     <WET_LabsCStar SensorID="71" >
#       <SerialNumber>CST-1626PR</SerialNumber>
#       <CalibrationDate>08-May-13</CalibrationDate>
#       <M>21.3930</M>
#       <B>-0.1500</B>
#       <PathLength>0.250</PathLength>
#     </WET_LabsCStar>
#   </sensor>
#   <sensor Channel="8" >
#     <!-- A/D voltage 4, PAR/Logarithmic, Satlantic -->
#     <PARLog_SatlanticSensor SensorID="76" >
#       <SerialNumber>PAR-0411</SerialNumber>
#       <CalibrationDate>01-Aug-13</CalibrationDate>
#       <a0>1.3170e+000</a0>
#       <a1>9.0330e-001</a1>
#       <Im>1.3589e+000</Im>
#       <ConversionUnits>1</ConversionUnits>
#       <Multiplier>1.0000e+000</Multiplier>
#     </PARLog_SatlanticSensor>
#   </sensor>
# </Sensors>
# datcnv_date = Dec 09 2024 10:07:19, 7.26.7.129 [datcnv_vars = 9]
# datcnv_in = C:\Users\awhite\data\CTD\processing\19plusV2_7360_20141014_test\9142453d5e9039c0e5bc1d6ef3cc544439382d0c.hex C:\Users\awhite\data\CTD\processing\19plusV2_7360_20141014_test\19plusV2_7360_20141014.xmlcon
# datcnv_skipover = 0
# datcnv_ox_hysteresis_correction = yes
# filter_date = Dec 09 2024 10:07:19, 7.26.7.129
# filter_in = C:\Users\awhite\data\CTD\processing\19plusV2_7360_20141014_test\5a1e612b72f2eb49544c8ece70b747e068f8c05e.cnv
# filter_low_pass_tc_A = 0.500
# filter_low_pass_tc_B = 1.000
# filter_low_pass_A_vars = tv290C c0S/m
# filter_low_pass_B_vars = prdM
# file_type = ascii
*END*
      0.060    21.4872   0.100941     2.7712    -0.0770    78.0527          1      0.000 1.8860e+03 0.0000e+00
      0.071    21.4914   0.167929     2.7725    -0.0770    78.0658          2      0.250 1.8551e+03 0.0000e+00
      0.085    21.4983   0.279578     2.7719    -0.0761    78.0445          3      0.500 5.6499e+02 0.0000e+00
      0.103    21.5098   0.465659     2.7716    -0.0394    78.0413          4      0.750 1.9846e+03 0.0000e+00
      0.126    21.5290   0.775795     2.7715    -0.0394    78.0527          5      1.000 2.0200e+03 0.0000e+00
      0.156    21.5610   1.292688     2.7710    -0.0399    78.0282          6      1.250 2.0366e+03 0.0000e+00
      0.193    21.6143   2.043580     2.7710    -0.0399    78.0527          7      1.500 2.0083e+03 0.0000e+00
      0.235    21.6945   2.896926     2.7705    -0.0422    78.0413          8      1.750 1.9943e+03 0.0000e+00
      0.281    21.7936   3.651050     2.7715    29.3023    78.0380          9      2.000 1.9339e+03 0.0000e+00
      0.329    21.8963   4.190529     2.7702    29.3069    71.9630         10      2.250 1.9130e+03 0.0000e+00
      0.376    21.9916   4.533527     2.7709    29.3055    71.9565         11      2.500 1.1921e+03 0.0000e+00
      0.422    22.0730   4.746464     2.7717    29.3096    71.9630         12      2.750 9.2990e+02 0.0000e+00
      0.467    22.1373   4.875856     2.7730     0.1221     7.7318         13      3.000 3.0441e+02 0.0000e+00
      0.510    22.1847   4.952323     2.7752     0.1194     7.7416         14      3.250 2.1006e+03 0.0000e+00
      0.549    22.2176   4.995808     2.7799     0.1167     7.7416         15      3.500 8.2716e+02 0.0000e+00
      0.583    22.2391   5.020918     2.7863     0.1185     7.7269         16      3.750 1.7996e+03 0.0000e+00
      0.612    22.2521   5.036453     2.7933     0.2920    66.5834         17      4.000 1.0546e+03 0.0000e+00
      0.635    22.2595   5.046196     2.8046     0.2915    66.6046         18      4.250 1.2792e+03 0.0000e+00
      0.654    22.2635   5.052426     2.8139     0.2901    66.5915         19      4.500 1.3051e+03 0.0000e+00
      0.669    22.2655   5.057268     2.8223     0.2915    79.2262         20      4.750 1.2129e+03 0.0000e+00
      0.681    22.2666   5.062377     2.8288     0.2934    79.2377         21      5.000 1.5254e+03 0.0000e+00
      0.691    22.2674   5.068894     2.8363     0.1038    79.2360         22      5.250 8.9739e+02 0.0000e+00
      0.700    22.2684   5.076930     2.8450     0.1029    67.0208         23      5.500 1.6064e+03 0.0000e+00
      0.707    22.2690   5.084945     2.8428     0.1066    67.0224         24      5.750 1.5915e+03 0.0000e+00
      0.714    22.2692   5.091230     2.8245     0.1048    67.0175         25      6.000 1.1914e+03 0.0000e+00
      0.718    22.2693   5.095593     2.7908     0.0942    67.0143         26      6.250 8.7805e+02 0.0000e+00
      0.721    22.2698   5.098681     2.7509     0.0983    80.2333         27      6.500 1.7916e+03 0.0000e+00
      0.723    22.2707   5.100767     2.7082     0.0988    80.2317         28      6.750 1.3393e+03 0.0000e+00
      0.724    22.2717   5.101819     2.6642     0.0988    80.2219         29      7.000 1.0472e+03 0.0000e+00
      0.725    22.2727   5.101795     2.6283    -0.0170    80.3165         30      7.250 1.8361e+03 0.0000e+00
      0.726    22.2734   5.100981     2.5969    -0.0188    80.3133         31      7.500 1.5752e+03 0.0000e+00
      0.727    22.2738   5.100174     2.5742    -0.0184    80.3100         32      7.750 1.1173e+03 0.0000e+00
      0.727    22.2744   5.099951     2.5579    -0.0198    80.2986         33      8.000 1.1067e+03 0.0000e+00
      0.728    22.2755   5.100196     2.5418    -0.0188    80.6005         34      8.250 1.1993e+03 0.0000e+00
      0.730    22.2768   5.100254     2.5250    -0.0106    80.6038         35      8.500 1.1026e+03 0.0000e+00
      0.731    22.2778   5.099733     2.5090    -0.0115    80.6038         36      8.750 1.1874e+03 0.0000e+00
      0.731    22.2782   5.099615     2.4931    -0.0097    80.6234         37      9.000 8.1502e+02 0.0000e+00
      0.731    22.2785   5.101160     2.4739    -0.0111    80.6120         38      9.250 1.5548e+03 0.0000e+00
      0.731    22.2792   5.103958     2.4512     0.0965    80.6234         39      9.500 1.3587e+03 0.0000e+00
      0.732    22.2803   5.106757     2.4273     0.0942    80.6087         40      9.750 1.3034e+03 0.0000e+00
      0.733    22.2814   5.108884     2.4092     0.0970    80.6152         41     10.000 7.9715e+02 0.0000e+00
      0.735    22.2820   5.110161     2.3933     0.0965    80.6185         42     10.250 1.1472e+03 0.0000e+00
      0.736    22.2822   5.110624     2.3765     0.0938    80.6071         43     10.500 1.1700e+03 0.0000e+00
      0.736    22.2823   5.110401     2.3624     0.1533    80.3998         44     10.750 1.3558e+03 0.0000e+00
      0.736    22.2826   5.109949     2.3481     0.1551    80.4079         45     11.000 1.2084e+03 0.0000e+00
      0.735    22.2834   5.109908     2.3310     0.1556    80.4030         46     11.250 1.0385e+03 0.0000e+00
      0.733    22.2844   5.110301     2.3177     0.1533    80.9923         47     11.500 1.1461e+03 0.0000e+00
      0.733    22.2855   5.110735     2.3090     0.1455    81.0037         48     11.750 1.2021e+03 0.0000e+00
      0.733    22.2863   5.111006     2.3071     0.1473    80.9890         49     12.000 6.8017e+02 0.0000e+00
      0.735    22.2867   5.110809     2.3024     0.1473    80.6544         50     12.250 1.5575e+03 0.0000e+00
      0.737    22.2863   5.109599     2.3003     0.1487    80.6560         51     12.500 1.8493e+03 0.0000e+00
      0.739    22.2849   5.107553     2.2991     0.1844    80.6577         52     12.750 1.3611e+03 0.0000e+00
      0.740    22.2829   5.105885     2.3040     0.1844    80.6609         53     13.000 1.2202e+03 0.0000e+00
      0.739    22.2803   5.105301     2.3116     0.1849    80.9433         54     13.250 9.2900e+02 0.0000e+00
      0.738    22.2775   5.105539     2.3185     0.1844    80.9498         55     13.500 1.8678e+03 0.0000e+00
      0.738    22.2751   5.106348     2.3255     0.1807    80.9417         56     13.750 6.7359e+02 0.0000e+00
      0.740    22.2737   5.107636     2.3341     0.1501    80.8992         57     14.000 1.0024e+03 0.0000e+00
      0.744    22.2735   5.108876     2.3433     0.1478    80.9009         58     14.250 8.1534e+02 0.0000e+00
      0.747    22.2737   5.109358     2.3486     0.1492    80.9074         59     14.500 1.4724e+03 0.0000e+00
      0.749    22.2733   5.109234     2.3491     0.1492    80.9384         60     14.750 1.5163e+03 0.0000e+00
      0.749    22.2717   5.109117     2.3430     0.1308    80.9417         61     15.000 1.6744e+03 0.0000e+00
      0.748    22.2689   5.109154     2.3333     0.1331    80.9498         62     15.250 1.6721e+03 0.0000e+00
      0.748    22.2660   5.109445     2.3277     0.1331    80.9629         63     15.500 2.0641e+03 0.0000e+00
      0.749    22.2643   5.109917     2.3289     0.1322    80.7784         64     15.750 1.8805e+03 0.0000e+00
      0.750    22.2641   5.110130     2.3389     0.1546    80.7817         65     16.000 1.6310e+03 0.0000e+00
      0.750    22.2643   5.110139     2.3544     0.1514    80.7801         66     16.250 1.0195e+03 0.0000e+00
      0.748    22.2637   5.110310     2.3646     0.1551    80.9368         67     16.500 6.5716e+02 0.0000e+00
      0.746    22.2615   5.110707     2.3674     0.1524    80.9384         68     16.750 9.1858e+02 0.0000e+00
      0.744    22.2586   5.111212     2.3677     0.1519    80.9351         69     17.000 2.5815e+03 0.0000e+00
      0.743    22.2567   5.111690     2.3711     0.1817    80.9155         70     17.250 1.8439e+03 0.0000e+00
      0.743    22.2568   5.112031     2.3762     0.1817    80.8568         71     17.500 1.1236e+03 0.0000e+00
      0.743    22.2582   5.112064     2.3796     0.1835    80.8568         72     17.750 7.3979e+02 0.0000e+00
      0.743    22.2598   5.111844     2.3778     0.1835    80.8617         73     18.000 9.1057e+02 0.0000e+00
      0.741    22.2609   5.111766     2.3714     0.1844    80.8241         74     18.250 2.0024e+03 0.0000e+00
      0.741    22.2611   5.112098     2.3609     0.1835    80.8339         75     18.500 8.4867e+02 0.0000e+00
      0.741    22.2605   5.112861     2.3495     0.1817    80.8176         76     18.750 1.6562e+03 0.0000e+00
      0.743    22.2599   5.113834     2.3398     0.1807    80.9547         77     19.000 1.2122e+03 0.0000e+00
      0.745    22.2599   5.114450     2.3293     0.1739    80.9531         78     19.250 8.8388e+02 0.0000e+00
      0.746    22.2604   5.114360     2.3225     0.1711    80.9498         79     19.500 1.6127e+03 0.0000e+00
      0.746    22.2603   5.113929     2.3155     0.1757    80.9612         80     19.750 1.1709e+03 0.0000e+00
      0.744    22.2585   5.113668     2.3060     0.1734    81.0543         81     20.000 1.1386e+03 0.0000e+00
      0.742    22.2547   5.113741     2.2953     0.1766    81.0755         82     20.250 1.2449e+03 0.0000e+00
      0.742    22.2495   5.114100     2.2897     0.1167    81.0608         83     20.500 1.3572e+03 0.0000e+00
      0.743    22.2447   5.114539     2.2918     0.1171    81.0151         84     20.750 6.5639e+02 0.0000e+00
      0.746    22.2420   5.114799     2.2941     0.1162    81.0102         85     21.000 1.3171e+03 0.0000e+00
      0.748    22.2416   5.114743     2.2943     0.1176    80.9955         86     21.250 1.5566e+03 0.0000e+00
      0.748    22.2426   5.114484     2.2943     0.1844    80.9841         87     21.500 8.1772e+02 0.0000e+00
      0.747    22.2434   5.114286     2.2962     0.1817    80.9694         88     21.750 1.4104e+03 0.0000e+00
      0.744    22.2429   5.114289     2.3053     0.1826    80.9808         89     22.000 1.1707e+03 0.0000e+00
      0.743    22.2412   5.114506     2.3159     0.1839    80.9776         90     22.250 3.2166e+03 0.0000e+00
      0.743    22.2393   5.114858     2.3239     0.1785    81.1245         91     22.500 7.4051e+02 0.0000e+00
      0.745    22.2385   5.115164     2.3297     0.1533    81.1130         92     22.750 8.9390e+02 0.0000e+00
      0.745    22.2392   5.115223     2.3346     0.1533    81.1245         93     23.000 1.1646e+03 0.0000e+00
      0.745    22.2406   5.115060     2.3334     0.1560    81.0559         94     23.250 1.6033e+03 0.0000e+00
      0.743    22.2418   5.114939     2.3292     0.1533    81.0657         95     23.500 1.4610e+03 0.0000e+00
      0.740    22.2419   5.115029     2.3188     0.1551    81.0706         96     23.750 1.3830e+03 0.0000e+00
      0.739    22.2404   5.115377     2.3062     0.1565    81.0412         97     24.000 1.2319e+03 0.0000e+00
      0.741    22.2385   5.115927     2.2924     0.1542    80.7458         98     24.250 1.7036e+03 0.0000e+00
      0.743    22.2374   5.116396     2.2807     0.1514    80.7409         99     24.500 1.1212e+03 0.0000e+00
      0.744    22.2378   5.116436     2.2784     0.1679    80.7670        100     24.750 1.2324e+03 0.0000e+00
